Data from dråber_Absorbance_15-13-56-792.txt Node
Date: Tue Apr 26 15:13:56 CEST 2022
User: au615756
Spectrometer: FLMS05815
Trigger mode: 0
Integration Time (sec): 5.000000E-1
Scans to average: 1
Electric dark correction enabled: true
Nonlinearity correction enabled: false
Boxcar width: 0
XAxis mode: Wavelengths
Number of Pixels in Spectrum: 2048
>>>>>Begin Spectral Data<<<<<
187.008	0.42
187.477	0.42
187.945	0.42
188.413	-0
188.881	-0
189.349	-0.04
189.817	0.68
190.285	0.06
190.753	0.3
191.22	0.33
191.688	0.27
192.156	1.23
192.623	0.65
193.091	-0.96
193.559	0.69
194.026	-0.81
194.493	0.12
194.961	-0
195.428	-0
195.895	-2.11
196.363	-0.6
196.83	0.09
197.297	-0.01
197.764	-0.12
198.231	0.01
198.698	-0.23
199.165	-0.29
199.632	0.17
200.099	0.15
200.566	-0.04
201.032	0.23
201.499	0.06
201.966	0.1
202.432	0.16
202.899	-0.01
203.365	0.09
203.832	0.18
204.298	-0.1
204.764	0.2
205.231	-0.01
205.697	0.13
206.163	0.08
206.629	0.06
207.095	0.12
207.561	0.07
208.027	0.14
208.493	0.15
208.959	0.01
209.425	0.04
209.891	0.21
210.356	0.16
210.822	0.12
211.288	0.43
211.753	0.4
212.219	0.17
212.684	0.43
213.15	0.41
213.615	0.34
214.08	0.58
214.546	0.69
215.011	0.61
215.476	0.62
215.941	0.62
216.406	0.63
216.871	0.81
217.336	0.98
217.801	1.04
218.266	0.99
218.731	0.89
219.196	1
219.66	0.99
220.125	1.14
220.59	1.08
221.054	1.08
221.519	1.19
221.983	1.12
222.448	1.19
222.912	1.15
223.376	1.17
223.841	1.28
224.305	1.22
224.769	1.24
225.233	1.2
225.697	1.3
226.161	1.2
226.625	1.24
227.089	1.23
227.553	1.24
228.017	1.25
228.48	1.21
228.944	1.25
229.408	1.27
229.871	1.29
230.335	1.25
230.798	1.26
231.262	1.25
231.725	1.26
232.188	1.29
232.652	1.27
233.115	1.29
233.578	1.34
234.041	1.28
234.504	1.26
234.967	1.27
235.43	1.27
235.893	1.27
236.356	1.25
236.819	1.24
237.282	1.2
237.745	1.22
238.207	1.18
238.67	1.21
239.132	1.18
239.595	1.19
240.057	1.17
240.52	1.13
240.982	1.11
241.445	1.12
241.907	1.08
242.369	1.08
242.831	1.05
243.293	1.03
243.755	1.02
244.217	0.99
244.679	0.97
245.141	0.93
245.603	0.93
246.065	0.89
246.527	0.87
246.988	0.86
247.45	0.82
247.912	0.8
248.373	0.8
248.835	0.77
249.296	0.75
249.758	0.74
250.219	0.71
250.68	0.71
251.142	0.69
251.603	0.66
252.064	0.65
252.525	0.63
252.986	0.62
253.447	0.61
253.908	0.6
254.369	0.57
254.83	0.57
255.29	0.55
255.751	0.55
256.212	0.53
256.673	0.53
257.133	0.53
257.594	0.51
258.054	0.5
258.515	0.5
258.975	0.47
259.435	0.48
259.895	0.47
260.356	0.47
260.816	0.46
261.276	0.44
261.736	0.45
262.196	0.44
262.656	0.44
263.116	0.43
263.576	0.42
264.036	0.42
264.495	0.42
264.955	0.42
265.415	0.41
265.874	0.41
266.334	0.4
266.793	0.41
267.253	0.4
267.712	0.4
268.172	0.4
268.631	0.39
269.09	0.4
269.549	0.39
270.008	0.38
270.468	0.39
270.927	0.39
271.386	0.38
271.844	0.38
272.303	0.38
272.762	0.38
273.221	0.38
273.68	0.38
274.138	0.38
274.597	0.37
275.056	0.37
275.514	0.36
275.973	0.37
276.431	0.35
276.889	0.36
277.348	0.35
277.806	0.35
278.264	0.34
278.722	0.34
279.18	0.33
279.638	0.32
280.096	0.33
280.554	0.32
281.012	0.31
281.47	0.31
281.928	0.31
282.386	0.3
282.843	0.29
283.301	0.29
283.758	0.29
284.216	0.29
284.674	0.27
285.131	0.27
285.588	0.26
286.046	0.26
286.503	0.25
286.96	0.24
287.417	0.23
287.874	0.22
288.331	0.22
288.789	0.21
289.245	0.2
289.702	0.19
290.159	0.18
290.616	0.17
291.073	0.15
291.529	0.16
291.986	0.15
292.443	0.14
292.899	0.14
293.356	0.13
293.812	0.13
294.269	0.12
294.725	0.12
295.181	0.11
295.637	0.11
296.094	0.11
296.55	0.1
297.006	0.1
297.462	0.1
297.918	0.1
298.374	0.09
298.83	0.09
299.285	0.09
299.741	0.09
300.197	0.08
300.653	0.09
301.108	0.08
301.564	0.08
302.019	0.08
302.475	0.08
302.93	0.08
303.385	0.08
303.841	0.08
304.296	0.08
304.751	0.07
305.206	0.08
305.661	0.08
306.116	0.08
306.571	0.08
307.026	0.07
307.481	0.07
307.936	0.07
308.391	0.07
308.846	0.07
309.3	0.08
309.755	0.07
310.209	0.06
310.664	0.06
311.118	0.06
311.573	0.07
312.027	0.06
312.481	0.07
312.936	0.07
313.39	0.06
313.844	0.06
314.298	0.06
314.752	0.07
315.206	0.06
315.66	0.06
316.114	0.06
316.568	0.06
317.022	0.06
317.475	0.05
317.929	0.06
318.383	0.05
318.836	0.05
319.29	0.06
319.743	0.05
320.196	0.06
320.65	0.05
321.103	0.05
321.556	0.05
322.01	0.06
322.463	0.05
322.916	0.04
323.369	0.05
323.822	0.05
324.275	0.04
324.728	0.04
325.181	0.05
325.633	0.05
326.086	0.04
326.539	0.04
326.991	0.04
327.444	0.03
327.896	0.02
328.349	0.02
328.801	0.03
329.254	0.04
329.706	0.04
330.158	0.04
330.61	0.03
331.062	0.02
331.515	0.03
331.967	0.03
332.419	0.03
332.871	0.03
333.322	0.03
333.774	0.03
334.226	0.03
334.678	0.04
335.129	0.03
335.581	0.03
336.033	0.03
336.484	0.03
336.936	0.02
337.387	0.03
337.838	0.02
338.29	0.03
338.741	0.02
339.192	0.02
339.643	0.02
340.094	0.03
340.545	0.03
340.996	0.02
341.447	0.03
341.898	0.03
342.349	0.02
342.8	0.02
343.25	0.02
343.701	0.02
344.152	0.02
344.602	0.02
345.053	0.02
345.503	0.01
345.954	0.01
346.404	0.02
346.854	0.03
347.305	0.02
347.755	0.01
348.205	0.02
348.655	0.01
349.105	0.02
349.555	0.02
350.005	0.02
350.455	0.02
350.905	0.02
351.354	0.02
351.804	0.01
352.254	0.01
352.703	0.02
353.153	0.01
353.602	0.01
354.052	0.02
354.501	0.02
354.95	0.01
355.4	0.01
355.849	0.01
356.298	0.02
356.747	0.01
357.196	0.02
357.645	0.01
358.094	0.02
358.543	0.02
358.992	0.01
359.441	0.01
359.89	0.01
360.338	0.02
360.787	0.02
361.236	0.01
361.684	0
362.133	0.01
362.581	0.01
363.029	0.01
363.478	-0
363.926	0.01
364.374	0.01
364.822	0.01
365.271	0.01
365.719	0
366.167	0.01
366.615	0.02
367.062	0.01
367.51	0.02
367.958	0.01
368.406	0.01
368.854	0.01
369.301	0.01
369.749	0.01
370.196	0.01
370.644	0.02
371.091	0.01
371.538	0.01
371.986	0
372.433	0.01
372.88	0.01
373.327	0.01
373.775	0.01
374.222	0.01
374.669	0.02
375.115	0.02
375.562	0.01
376.009	-0
376.456	0.02
376.903	0.01
377.349	0.01
377.796	0.01
378.243	0.01
378.689	0.02
379.135	0.01
379.582	0.01
380.028	0.02
380.475	0
380.921	0.01
381.367	0.01
381.813	0.01
382.259	0.01
382.705	0
383.151	0.02
383.597	0.02
384.043	0.01
384.489	0.02
384.934	0.01
385.38	0.01
385.826	0.01
386.271	0.01
386.717	0.01
387.162	0.01
387.608	0.01
388.053	0.01
388.499	0.02
388.944	0.01
389.389	0
389.834	0.01
390.279	0.01
390.724	0.02
391.169	0.02
391.614	0.01
392.059	0.01
392.504	0.01
392.949	0.01
393.394	0.01
393.838	0.01
394.283	0.01
394.727	0.01
395.172	0.01
395.616	0.02
396.061	0.01
396.505	0.02
396.95	0.01
397.394	0.01
397.838	-0
398.282	0.01
398.726	0.01
399.17	0.01
399.614	0.01
400.058	0
400.502	0.01
400.946	0.02
401.39	0.02
401.833	0.02
402.277	0.01
402.721	0.01
403.164	0.02
403.608	0.02
404.051	0.01
404.494	0.01
404.938	0.02
405.381	0.01
405.824	0.02
406.267	0.01
406.71	0.01
407.154	0.01
407.597	0.02
408.039	0.03
408.482	0.02
408.925	0.02
409.368	0.01
409.811	0.02
410.253	0
410.696	0.01
411.139	0
411.581	0.01
412.024	0.01
412.466	0.01
412.908	0.01
413.351	0.01
413.793	0
414.235	0.01
414.677	0.01
415.119	0
415.561	0.01
416.003	0.02
416.445	-0
416.887	0
417.329	0.01
417.771	0.01
418.212	0
418.654	0
419.096	0.01
419.537	0.01
419.979	-0
420.42	0
420.861	-0
421.303	0.01
421.744	-0
422.185	-0.01
422.626	-0
423.067	-0
423.508	-0.01
423.949	-0
424.39	-0
424.831	0
425.272	0
425.713	-0
426.154	-0.01
426.594	-0.01
427.035	-0
427.475	0.01
427.916	-0.01
428.356	-0
428.797	-0.02
429.237	-0.01
429.677	-0
430.118	-0.01
430.558	-0.01
430.998	-0.01
431.438	-0.02
431.878	-0.01
432.318	-0.01
432.758	-0
433.198	-0.01
433.638	0
434.077	-0.01
434.517	-0.01
434.957	-0.01
435.396	-0.02
435.836	-0.01
436.275	-0.01
436.715	-0.02
437.154	-0.03
437.593	-0.02
438.032	-0.02
438.472	-0.02
438.911	-0.01
439.35	-0
439.789	-0.01
440.228	-0.02
440.667	-0.02
441.106	-0.01
441.544	-0.01
441.983	-0.01
442.422	-0.03
442.86	-0.02
443.299	-0.02
443.738	-0.01
444.176	-0.02
444.615	-0.02
445.053	-0.03
445.491	-0.02
445.929	-0.03
446.368	-0.03
446.806	-0.01
447.244	-0.02
447.682	-0.03
448.12	-0.02
448.558	-0.02
448.996	-0.02
449.434	-0.02
449.871	-0.02
450.309	-0.02
450.747	-0.02
451.184	-0.03
451.622	-0.04
452.059	-0.02
452.497	-0.02
452.934	-0.02
453.371	-0.02
453.809	-0.01
454.246	-0.01
454.683	-0.02
455.12	-0.02
455.557	-0.02
455.994	-0.02
456.431	-0.01
456.868	-0.02
457.305	-0.01
457.742	-0.01
458.178	-0.02
458.615	-0.02
459.052	-0.03
459.488	-0.02
459.925	-0.02
460.361	-0.01
460.797	-0.02
461.234	-0.02
461.67	-0.03
462.106	-0.02
462.542	-0.02
462.979	-0.02
463.415	-0.01
463.851	-0.02
464.287	-0.03
464.722	-0.02
465.158	-0.03
465.594	-0.03
466.03	-0.03
466.465	-0.02
466.901	-0.03
467.337	-0.02
467.772	-0.02
468.208	-0
468.643	-0
469.078	-0.01
469.514	-0.02
469.949	-0.02
470.384	-0.03
470.819	-0.02
471.254	-0.02
471.689	-0.01
472.124	-0.02
472.559	-0.02
472.994	-0.03
473.429	-0.01
473.863	-0.02
474.298	-0.02
474.733	-0.02
475.167	-0.03
475.602	-0.02
476.036	-0.03
476.471	-0.04
476.905	-0.03
477.339	-0.01
477.773	-0.02
478.208	-0.03
478.642	-0.02
479.076	-0.01
479.51	-0.03
479.944	-0.01
480.378	-0.02
480.811	-0.03
481.245	-0.02
481.679	-0.03
482.113	-0.03
482.546	-0.03
482.98	-0.02
483.413	-0.02
483.847	-0.03
484.28	-0.02
484.713	-0.02
485.147	-0.02
485.58	-0.02
486.013	-0.03
486.446	-0.03
486.879	-0.03
487.312	-0.03
487.745	-0.03
488.178	-0.02
488.611	-0.01
489.044	-0.02
489.477	-0.02
489.909	-0.01
490.342	-0.03
490.774	-0.02
491.207	-0.03
491.639	-0.02
492.072	-0.02
492.504	-0.03
492.936	-0.02
493.369	-0.02
493.801	-0.02
494.233	-0.03
494.665	-0.04
495.097	-0.03
495.529	-0.03
495.961	-0.02
496.393	-0.02
496.824	-0.03
497.256	-0.04
497.688	-0.04
498.119	-0.03
498.551	-0.02
498.982	-0.02
499.414	-0.02
499.845	-0.03
500.277	-0.03
500.708	-0.03
501.139	-0.02
501.57	-0.03
502.001	-0.02
502.432	-0.04
502.863	-0.04
503.294	-0.04
503.725	-0.03
504.156	-0.03
504.587	-0.02
505.017	-0.03
505.448	-0.03
505.879	-0.03
506.309	-0.04
506.74	-0.03
507.17	-0.02
507.601	-0.02
508.031	-0.03
508.461	-0.02
508.891	-0.03
509.321	-0.03
509.752	-0.04
510.182	-0.03
510.612	-0.01
511.042	-0.02
511.471	-0.04
511.901	-0.04
512.331	-0.02
512.761	-0.02
513.19	-0.02
513.62	-0.03
514.049	-0.02
514.479	-0.03
514.908	-0.03
515.338	-0.03
515.767	-0.03
516.196	-0.03
516.625	-0.03
517.055	-0.03
517.484	-0.03
517.913	-0.04
518.342	-0.02
518.771	-0.03
519.199	-0.02
519.628	-0.03
520.057	-0.04
520.486	-0.03
520.914	-0.04
521.343	-0.02
521.771	-0.02
522.2	-0.02
522.628	-0.03
523.057	-0.03
523.485	-0.05
523.913	-0.03
524.341	-0.03
524.77	-0.03
525.198	-0.03
525.626	-0.04
526.054	-0.04
526.481	-0.04
526.909	-0.02
527.337	-0.02
527.765	-0.04
528.192	-0.03
528.62	-0.03
529.048	-0.03
529.475	-0.03
529.903	-0.03
530.33	-0.03
530.757	-0.04
531.185	-0.03
531.612	-0.02
532.039	-0.03
532.466	-0.04
532.893	-0.03
533.32	-0.02
533.747	-0.02
534.174	-0.03
534.601	-0.04
535.028	-0.03
535.454	-0.03
535.881	-0.02
536.308	-0.03
536.734	-0.03
537.161	-0.03
537.587	-0.02
538.013	-0.03
538.44	-0.03
538.866	-0.02
539.292	-0.04
539.718	-0.04
540.144	-0.03
540.57	-0.02
540.996	-0.03
541.422	-0.04
541.848	-0.03
542.274	-0.02
542.7	-0.04
543.125	-0.05
543.551	-0.03
543.977	-0.03
544.402	-0.02
544.828	-0.04
545.253	-0.03
545.678	-0.03
546.104	-0.05
546.529	-0.04
546.954	-0.03
547.379	-0.03
547.804	-0.02
548.229	-0.03
548.654	-0.03
549.079	-0.03
549.504	-0.03
549.929	-0.02
550.353	-0.02
550.778	-0.02
551.203	-0.02
551.627	-0.02
552.052	-0.04
552.476	-0.03
552.901	-0.03
553.325	-0.01
553.749	-0.04
554.173	-0.03
554.598	-0.01
555.022	-0.03
555.446	-0.02
555.87	-0.03
556.294	-0.03
556.718	-0.03
557.141	-0.04
557.565	-0.02
557.989	-0.01
558.412	-0.01
558.836	-0.02
559.26	-0.02
559.683	-0.01
560.106	-0.02
560.53	-0.02
560.953	-0.01
561.376	-0.02
561.8	-0.02
562.223	-0.02
562.646	-0.02
563.069	-0.02
563.492	-0
563.915	-0.01
564.337	-0.01
564.76	-0.03
565.183	-0.02
565.606	-0.01
566.028	0
566.451	-0.01
566.873	-0.02
567.296	-0
567.718	0
568.14	-0.01
568.563	-0.02
568.985	-0.02
569.407	-0.03
569.829	-0
570.251	-0.02
570.673	-0.02
571.095	-0.02
571.517	-0.01
571.939	-0.01
572.361	-0
572.782	-0.01
573.204	-0.02
573.625	0
574.047	0.01
574.468	0.01
574.89	-0.01
575.311	-0.03
575.732	0.01
576.154	-0
576.575	0
576.996	0.02
577.417	0.02
577.838	0.02
578.259	-0
578.68	-0
579.101	-0
579.522	-0.02
579.942	-0
580.363	0.04
580.784	0.04
581.204	0.03
581.625	-0
582.045	0.01
582.465	-0
582.886	-0.02
583.306	-0.03
583.726	0.03
584.146	0.06
584.566	0.04
584.986	0.05
585.406	0.03
585.826	0.01
586.246	-0.02
586.666	-0.01
587.086	0
587.505	0.04
587.925	0.04
588.345	0.04
588.764	0.02
589.184	0.01
589.603	0.02
590.022	0.04
590.442	0.03
590.861	0.04
591.28	0.02
591.699	0.02
592.118	0.03
592.537	0.02
592.956	0.02
593.375	0
593.794	0
594.212	0.01
594.631	-0.01
595.05	0.01
595.468	0.06
595.887	0.06
596.305	0.06
596.724	0.02
597.142	0.01
597.56	0.04
597.979	0.05
598.397	0.03
598.815	0.01
599.233	0.01
599.651	0.03
600.069	0.03
600.487	0.02
600.905	0.02
601.322	0.05
601.74	0.06
602.158	0.04
602.575	0.08
602.993	0.06
603.41	0.06
603.828	0.06
604.245	0.05
604.663	0.03
605.08	0.02
605.497	0.02
605.914	0.06
606.331	0.06
606.748	0.07
607.165	0.03
607.582	0.05
607.999	0.06
608.416	0.07
608.832	0.07
609.249	0.07
609.666	0.07
610.082	0.09
610.499	0.08
610.915	0.08
611.332	0.06
611.748	0.07
612.164	0.07
612.58	0.1
612.997	0.08
613.413	0.07
613.829	0.09
614.245	0.08
614.661	0.06
615.076	0.08
615.492	0.08
615.908	0.09
616.324	0.08
616.739	0.08
617.155	0.11
617.57	0.13
617.986	0.12
618.401	0.11
618.817	0.09
619.232	0.11
619.647	0.1
620.062	0.1
620.477	0.12
620.892	0.11
621.307	0.1
621.722	0.1
622.137	0.11
622.552	0.14
622.967	0.11
623.381	0.12
623.796	0.1
624.211	0.13
624.625	0.14
625.04	0.14
625.454	0.12
625.868	0.14
626.283	0.1
626.697	0.14
627.111	0.14
627.525	0.15
627.939	0.14
628.353	0.14
628.767	0.15
629.181	0.13
629.595	0.14
630.009	0.16
630.422	0.13
630.836	0.12
631.249	0.13
631.663	0.15
632.076	0.15
632.49	0.13
632.903	0.14
633.316	0.14
633.73	0.13
634.143	0.13
634.556	0.13
634.969	0.13
635.382	0.13
635.795	0.12
636.208	0.09
636.621	0.13
637.033	0.12
637.446	0.12
637.859	0.11
638.271	0.11
638.684	0.13
639.096	0.13
639.509	0.11
639.921	0.09
640.333	0.1
640.746	0.1
641.158	0.09
641.57	0.11
641.982	0.08
642.394	0.09
642.806	0.08
643.218	0.09
643.63	0.07
644.041	0.07
644.453	0.07
644.865	0.06
645.276	0.07
645.688	0.05
646.099	0.06
646.511	0.07
646.922	0.05
647.333	0.04
647.745	0.03
648.156	0.04
648.567	0.04
648.978	0.04
649.389	0.03
649.8	0.03
650.211	0.03
650.622	0.02
651.032	0.04
651.443	0.02
651.854	0.04
652.264	0.02
652.675	0
653.085	0.01
653.496	0.01
653.906	0.01
654.316	0.01
654.726	0
655.137	-0
655.547	0
655.957	0.01
656.367	-0.02
656.777	-0.03
657.187	-0.13
657.596	-0.08
658.006	-0.06
658.416	0.08
658.826	0.15
659.235	0.03
659.645	-0.02
660.054	-0.03
660.463	-0.02
660.873	-0.01
661.282	-0.01
661.691	-0.01
662.1	-0
662.51	-0.04
662.919	-0.03
663.328	-0.04
663.737	-0.03
664.145	-0.03
664.554	-0.04
664.963	-0.05
665.372	-0.06
665.78	-0.04
666.189	-0.05
666.597	-0.02
667.006	-0.04
667.414	-0.04
667.823	-0.02
668.231	-0.05
668.639	-0.04
669.047	-0.05
669.455	-0.06
669.863	-0.05
670.271	-0.03
670.679	-0.05
671.087	-0.05
671.495	-0.06
671.903	-0.05
672.31	-0.04
672.718	-0.05
673.126	-0.06
673.533	-0.06
673.941	-0.06
674.348	-0.04
674.755	-0.04
675.163	-0.04
675.57	-0.05
675.977	-0.05
676.384	-0.05
676.791	-0.06
677.198	-0.07
677.605	-0.06
678.012	-0.06
678.419	-0.06
678.825	-0.05
679.232	-0.06
679.639	-0.05
680.045	-0.07
680.452	-0.05
680.858	-0.06
681.264	-0.06
681.671	-0.06
682.077	-0.05
682.483	-0.05
682.889	-0.04
683.295	-0.06
683.701	-0.06
684.107	-0.06
684.513	-0.03
684.919	-0.05
685.325	-0.07
685.731	-0.05
686.136	-0.07
686.542	-0.06
686.947	-0.06
687.353	-0.06
687.758	-0.05
688.164	-0.04
688.569	-0.04
688.974	-0.06
689.379	-0.04
689.784	-0.06
690.19	-0.06
690.595	-0.05
690.999	-0.05
691.404	-0.06
691.809	-0.07
692.214	-0.05
692.619	-0.07
693.023	-0.07
693.428	-0.07
693.832	-0.03
694.237	-0.04
694.641	-0.05
695.046	-0.06
695.45	-0.06
695.854	-0.05
696.258	-0.06
696.662	-0.07
697.066	-0.06
697.47	-0.07
697.874	-0.05
698.278	-0.07
698.682	-0.08
699.086	-0.08
699.489	-0.05
699.893	-0.02
700.297	-0.04
700.7	-0.06
701.104	-0.05
701.507	-0.05
701.91	-0.06
702.314	-0.08
702.717	-0.06
703.12	-0.06
703.523	-0.08
703.926	-0.08
704.329	-0.06
704.732	-0.06
705.135	-0.05
705.538	-0.03
705.94	-0.06
706.343	-0.05
706.746	-0.06
707.148	-0.05
707.551	-0.05
707.953	-0.06
708.355	-0.08
708.758	-0.08
709.16	-0.05
709.562	-0.03
709.964	-0.04
710.366	-0.06
710.768	-0.05
711.17	-0.05
711.572	-0.05
711.974	-0.07
712.376	-0.08
712.777	-0.06
713.179	-0.05
713.581	-0.05
713.982	-0.07
714.384	-0.08
714.785	-0.06
715.186	-0.06
715.588	-0.06
715.989	-0.06
716.39	-0.06
716.791	-0.06
717.192	-0.07
717.593	-0.04
717.994	-0.03
718.395	-0.05
718.796	-0.05
719.196	-0.07
719.597	-0.06
719.998	-0.04
720.398	-0.06
720.799	-0.05
721.199	-0.07
721.6	-0.06
722	-0.06
722.4	-0.06
722.8	-0.06
723.201	-0.06
723.601	-0.05
724.001	-0.06
724.401	-0.05
724.8	-0.05
725.2	-0.05
725.6	-0.04
726	-0.06
726.399	-0.05
726.799	-0.06
727.199	-0.07
727.598	-0.04
727.997	-0.05
728.397	-0.05
728.796	-0.05
729.195	-0.05
729.594	-0.07
729.994	-0.06
730.393	-0.05
730.792	-0.04
731.19	-0.06
731.589	-0.05
731.988	-0.07
732.387	-0.07
732.786	-0.05
733.184	-0.07
733.583	-0.02
733.981	-0.06
734.38	-0.06
734.778	-0.05
735.176	-0.04
735.575	-0.04
735.973	-0.05
736.371	-0.04
736.769	-0.03
737.167	-0.06
737.565	-0.06
737.963	-0.04
738.361	-0.04
738.759	-0.05
739.156	-0.05
739.554	-0.05
739.951	-0.05
740.349	-0.06
740.746	-0.05
741.144	-0.06
741.541	-0.03
741.938	-0.02
742.336	-0.06
742.733	-0.07
743.13	-0.05
743.527	-0.05
743.924	-0.05
744.321	-0.05
744.718	-0.05
745.115	-0.04
745.511	-0.05
745.908	-0.05
746.305	-0.05
746.701	-0.05
747.098	-0.06
747.494	-0.05
747.89	-0.05
748.287	-0.06
748.683	-0.05
749.079	-0.04
749.475	-0.06
749.871	-0.04
750.267	-0.04
750.663	-0.07
751.059	-0.06
751.455	-0.17
751.851	-0.18
752.246	-0.07
752.642	0.05
753.038	0.05
753.433	-0.04
753.829	-0.01
754.224	-0.04
754.619	-0.05
755.015	-0.06
755.41	-0.06
755.805	-0.06
756.2	-0.06
756.595	-0.05
756.99	-0.08
757.385	-0.06
757.78	-0.05
758.175	-0.05
758.569	-0.07
758.964	-0.06
759.359	-0.04
759.753	-0.04
760.148	-0.02
760.542	-0.03
760.936	-0.05
761.331	-0.06
761.725	-0.06
762.119	-0.05
762.513	-0.07
762.907	-0.05
763.301	-0.04
763.695	-0.05
764.089	-0.06
764.483	-0.06
764.877	-0.1
765.27	-0.06
765.664	-0.02
766.057	-0.03
766.451	-0.07
766.844	-0.04
767.238	-0.04
767.631	-0.03
768.024	-0.04
768.417	-0.03
768.811	-0.05
769.204	-0.05
769.597	-0.07
769.99	-0.08
770.383	-0.07
770.775	-0.04
771.168	-0.03
771.561	-0.05
771.953	-0.06
772.346	-0.06
772.739	-0.06
773.131	-0.05
773.523	-0.06
773.916	-0.06
774.308	-0.05
774.7	-0.04
775.092	-0.03
775.484	-0.05
775.876	-0.05
776.268	-0.05
776.66	-0.05
777.052	-0.06
777.444	-0.04
777.836	-0.05
778.227	-0.07
778.619	-0.07
779.01	-0.06
779.402	-0.04
779.793	-0.04
780.185	-0.06
780.576	-0.06
780.967	-0.05
