Data from dråber_Absorbance_15-15-02-275.txt Node
Date: Tue Apr 26 15:15:02 CEST 2022
User: au615756
Spectrometer: FLMS05815
Trigger mode: 0
Integration Time (sec): 5.000000E-1
Scans to average: 1
Electric dark correction enabled: true
Nonlinearity correction enabled: false
Boxcar width: 0
XAxis mode: Wavelengths
Number of Pixels in Spectrum: 2048
>>>>>Begin Spectral Data<<<<<
187.008	-0
187.477	-0
187.945	-0
188.413	-0
188.881	-0
189.349	-0.42
189.817	0.36
190.285	-0.34
190.753	-0
191.22	-0
191.688	-0.36
192.156	0.75
192.623	0.48
193.091	0.3
193.559	0.61
194.026	-0
194.493	-0.11
194.961	1.32
195.428	-0
195.895	-1.54
196.363	-0
196.83	1.08
197.297	0.15
197.764	0.01
198.231	0.04
198.698	0.4
199.165	-0.13
199.632	-0.04
200.099	-0.01
200.566	-0.01
201.032	0.07
201.499	-0.13
201.966	0.09
202.432	0.12
202.899	-0.11
203.365	0.22
203.832	0.02
204.298	0.05
204.764	0.09
205.231	0.22
205.697	0.15
206.163	0.12
206.629	-0.05
207.095	-0.01
207.561	0.14
208.027	0.22
208.493	0.41
208.959	0.1
209.425	0.17
209.891	0.21
210.356	0.18
210.822	0.25
211.288	0.38
211.753	0.52
212.219	0.15
212.684	0.62
213.15	0.3
213.615	0.53
214.08	0.53
214.546	0.52
215.011	0.56
215.476	0.72
215.941	0.67
216.406	0.7
216.871	0.82
217.336	0.99
217.801	1.02
218.266	1.17
218.731	0.99
219.196	0.99
219.66	1.04
220.125	1.14
220.59	1.26
221.054	1.29
221.519	1.28
221.983	1.29
222.448	1.44
222.912	1.42
223.376	1.45
223.841	1.47
224.305	1.51
224.769	1.52
225.233	1.49
225.697	1.55
226.161	1.51
226.625	1.54
227.089	1.49
227.553	1.62
228.017	1.59
228.48	1.47
228.944	1.53
229.408	1.57
229.871	1.59
230.335	1.58
230.798	1.62
231.262	1.56
231.725	1.65
232.188	1.58
232.652	1.64
233.115	1.58
233.578	1.63
234.041	1.66
234.504	1.6
234.967	1.64
235.43	1.66
235.893	1.58
236.356	1.59
236.819	1.57
237.282	1.62
237.745	1.58
238.207	1.55
238.67	1.57
239.132	1.55
239.595	1.52
240.057	1.52
240.52	1.45
240.982	1.43
241.445	1.43
241.907	1.43
242.369	1.4
242.831	1.38
243.293	1.33
243.755	1.32
244.217	1.28
244.679	1.25
245.141	1.23
245.603	1.2
246.065	1.2
246.527	1.15
246.988	1.14
247.45	1.09
247.912	1.07
248.373	1.06
248.835	1.01
249.296	0.98
249.758	0.99
250.219	0.93
250.68	0.92
251.142	0.92
251.603	0.89
252.064	0.86
252.525	0.85
252.986	0.83
253.447	0.8
253.908	0.81
254.369	0.77
254.83	0.75
255.29	0.75
255.751	0.74
256.212	0.72
256.673	0.71
257.133	0.69
257.594	0.67
258.054	0.67
258.515	0.66
258.975	0.65
259.435	0.63
259.895	0.64
260.356	0.63
260.816	0.62
261.276	0.61
261.736	0.61
262.196	0.6
262.656	0.59
263.116	0.58
263.576	0.57
264.036	0.56
264.495	0.57
264.955	0.56
265.415	0.56
265.874	0.55
266.334	0.57
266.793	0.54
267.253	0.55
267.712	0.54
268.172	0.54
268.631	0.52
269.09	0.53
269.549	0.52
270.008	0.52
270.468	0.52
270.927	0.52
271.386	0.52
271.844	0.51
272.303	0.51
272.762	0.51
273.221	0.5
273.68	0.51
274.138	0.5
274.597	0.5
275.056	0.5
275.514	0.49
275.973	0.5
276.431	0.47
276.889	0.48
277.348	0.48
277.806	0.46
278.264	0.45
278.722	0.44
279.18	0.44
279.638	0.43
280.096	0.43
280.554	0.42
281.012	0.42
281.47	0.41
281.928	0.4
282.386	0.4
282.843	0.4
283.301	0.39
283.758	0.38
284.216	0.38
284.674	0.37
285.131	0.36
285.588	0.35
286.046	0.33
286.503	0.33
286.96	0.32
287.417	0.3
287.874	0.29
288.331	0.28
288.789	0.27
289.245	0.25
289.702	0.25
290.159	0.24
290.616	0.22
291.073	0.21
291.529	0.2
291.986	0.19
292.443	0.19
292.899	0.17
293.356	0.16
293.812	0.16
294.269	0.15
294.725	0.15
295.181	0.14
295.637	0.14
296.094	0.14
296.55	0.13
297.006	0.13
297.462	0.13
297.918	0.13
298.374	0.11
298.83	0.11
299.285	0.11
299.741	0.11
300.197	0.11
300.653	0.11
301.108	0.11
301.564	0.1
302.019	0.1
302.475	0.11
302.93	0.1
303.385	0.1
303.841	0.1
304.296	0.1
304.751	0.1
305.206	0.11
305.661	0.1
306.116	0.1
306.571	0.09
307.026	0.09
307.481	0.09
307.936	0.09
308.391	0.09
308.846	0.08
309.3	0.09
309.755	0.09
310.209	0.08
310.664	0.08
311.118	0.08
311.573	0.08
312.027	0.08
312.481	0.08
312.936	0.08
313.39	0.08
313.844	0.08
314.298	0.07
314.752	0.08
315.206	0.07
315.66	0.08
316.114	0.07
316.568	0.06
317.022	0.07
317.475	0.07
317.929	0.07
318.383	0.06
318.836	0.07
319.29	0.06
319.743	0.06
320.196	0.07
320.65	0.06
321.103	0.06
321.556	0.06
322.01	0.06
322.463	0.06
322.916	0.05
323.369	0.05
323.822	0.05
324.275	0.05
324.728	0.06
325.181	0.05
325.633	0.05
326.086	0.05
326.539	0.05
326.991	0.04
327.444	0.02
327.896	0.03
328.349	0.04
328.801	0.05
329.254	0.05
329.706	0.04
330.158	0.04
330.61	0.03
331.062	0.03
331.515	0.03
331.967	0.03
332.419	0.03
332.871	0.03
333.322	0.03
333.774	0.03
334.226	0.03
334.678	0.04
335.129	0.03
335.581	0.02
336.033	0.02
336.484	0.03
336.936	0.02
337.387	0.02
337.838	0.02
338.29	0.03
338.741	0.02
339.192	0.02
339.643	0.01
340.094	0.02
340.545	0.02
340.996	0.02
341.447	0.02
341.898	0.02
342.349	0.02
342.8	0.01
343.25	0.01
343.701	0.01
344.152	0.02
344.602	0.02
345.053	0.01
345.503	0.02
345.954	0.01
346.404	0.01
346.854	0.02
347.305	0.01
347.755	0.01
348.205	0.01
348.655	-0
349.105	0.02
349.555	0.01
350.005	0.01
350.455	0.01
350.905	0.01
351.354	0.02
351.804	0.01
352.254	0.01
352.703	0.01
353.153	-0
353.602	0.01
354.052	0
354.501	0
354.95	0
355.4	0.01
355.849	0
356.298	0.01
356.747	0.01
357.196	0.01
357.645	0
358.094	0.01
358.543	0.01
358.992	0
359.441	0
359.89	-0.01
360.338	0.01
360.787	0.01
361.236	-0
361.684	-0.01
362.133	0
362.581	0
363.029	-0
363.478	-0
363.926	0
364.374	0
364.822	-0
365.271	-0
365.719	-0.01
366.167	0
366.615	0
367.062	-0
367.51	0.01
367.958	0
368.406	-0
368.854	-0
369.301	-0.01
369.749	-0.01
370.196	0
370.644	-0
371.091	0
371.538	-0
371.986	-0
372.433	0
372.88	-0.01
373.327	-0
373.775	-0.01
374.222	0
374.669	0
375.115	-0
375.562	-0.01
376.009	-0.01
376.456	0.01
376.903	0
377.349	0
377.796	-0
378.243	0
378.689	0
379.135	-0
379.582	0.01
380.028	0
380.475	-0.01
380.921	0
381.367	0
381.813	-0
382.259	-0
382.705	-0.01
383.151	0.01
383.597	0
384.043	-0.01
384.489	0
384.934	0.01
385.38	0
385.826	-0.01
386.271	-0.01
386.717	0
387.162	-0
387.608	-0.01
388.053	0
388.499	-0
388.944	-0.01
389.389	-0.01
389.834	-0.01
390.279	-0.01
390.724	-0
391.169	0
391.614	-0
392.059	-0
392.504	-0.01
392.949	-0
393.394	0
393.838	-0.01
394.283	-0.01
394.727	-0.01
395.172	-0.01
395.616	0.01
396.061	-0
396.505	0
396.95	-0.01
397.394	-0
397.838	-0.01
398.282	0.01
398.726	0
399.17	-0.01
399.614	-0.01
400.058	-0.01
400.502	-0.01
400.946	0.01
401.39	0.01
401.833	0
402.277	-0
402.721	-0
403.164	-0
403.608	0.01
404.051	-0.01
404.494	0
404.938	0.01
405.381	-0
405.824	0
406.267	-0.01
406.71	-0
407.154	-0
407.597	0.01
408.039	0.01
408.482	0.01
408.925	0.02
409.368	0
409.811	0
410.253	-0.01
410.696	0
411.139	-0
411.581	-0
412.024	0
412.466	-0.01
412.908	-0.01
413.351	-0
413.793	-0.01
414.235	-0.01
414.677	-0.01
415.119	-0.01
415.561	-0
416.003	-0.01
416.445	-0.01
416.887	-0.01
417.329	-0.02
417.771	-0.01
418.212	-0.01
418.654	-0.01
419.096	-0.02
419.537	-0.01
419.979	-0.02
420.42	-0.02
420.861	-0.01
421.303	-0.02
421.744	-0.02
422.185	-0.03
422.626	-0.03
423.067	-0.03
423.508	-0.04
423.949	-0.02
424.39	-0.02
424.831	-0.02
425.272	-0.02
425.713	-0.03
426.154	-0.03
426.594	-0.04
427.035	-0.02
427.475	-0.02
427.916	-0.03
428.356	-0.03
428.797	-0.04
429.237	-0.04
429.677	-0.04
430.118	-0.03
430.558	-0.04
430.998	-0.04
431.438	-0.05
431.878	-0.04
432.318	-0.03
432.758	-0.04
433.198	-0.02
433.638	-0.04
434.077	-0.04
434.517	-0.04
434.957	-0.04
435.396	-0.05
435.836	-0.04
436.275	-0.05
436.715	-0.05
437.154	-0.06
437.593	-0.06
438.032	-0.05
438.472	-0.04
438.911	-0.04
439.35	-0.04
439.789	-0.05
440.228	-0.05
440.667	-0.04
441.106	-0.04
441.544	-0.04
441.983	-0.05
442.422	-0.06
442.86	-0.06
443.299	-0.05
443.738	-0.04
444.176	-0.04
444.615	-0.05
445.053	-0.06
445.491	-0.05
445.929	-0.05
446.368	-0.06
446.806	-0.04
447.244	-0.05
447.682	-0.05
448.12	-0.06
448.558	-0.06
448.996	-0.05
449.434	-0.06
449.871	-0.05
450.309	-0.05
450.747	-0.05
451.184	-0.06
451.622	-0.06
452.059	-0.05
452.497	-0.05
452.934	-0.06
453.371	-0.05
453.809	-0.05
454.246	-0.06
454.683	-0.05
455.12	-0.05
455.557	-0.06
455.994	-0.06
456.431	-0.05
456.868	-0.06
457.305	-0.06
457.742	-0.05
458.178	-0.05
458.615	-0.05
459.052	-0.06
459.488	-0.05
459.925	-0.05
460.361	-0.05
460.797	-0.06
461.234	-0.05
461.67	-0.06
462.106	-0.06
462.542	-0.06
462.979	-0.06
463.415	-0.05
463.851	-0.05
464.287	-0.05
464.722	-0.06
465.158	-0.05
465.594	-0.07
466.03	-0.06
466.465	-0.07
466.901	-0.07
467.337	-0.06
467.772	-0.07
468.208	-0.04
468.643	-0.05
469.078	-0.06
469.514	-0.06
469.949	-0.07
470.384	-0.06
470.819	-0.06
471.254	-0.05
471.689	-0.05
472.124	-0.06
472.559	-0.06
472.994	-0.08
473.429	-0.05
473.863	-0.06
474.298	-0.06
474.733	-0.06
475.167	-0.07
475.602	-0.07
476.036	-0.07
476.471	-0.08
476.905	-0.06
477.339	-0.05
477.773	-0.07
478.208	-0.06
478.642	-0.06
479.076	-0.06
479.51	-0.07
479.944	-0.06
480.378	-0.07
480.811	-0.07
481.245	-0.06
481.679	-0.07
482.113	-0.06
482.546	-0.07
482.98	-0.07
483.413	-0.07
483.847	-0.06
484.28	-0.06
484.713	-0.06
485.147	-0.06
485.58	-0.07
486.013	-0.07
486.446	-0.07
486.879	-0.08
487.312	-0.07
487.745	-0.08
488.178	-0.06
488.611	-0.05
489.044	-0.06
489.477	-0.05
489.909	-0.05
490.342	-0.06
490.774	-0.07
491.207	-0.07
491.639	-0.06
492.072	-0.06
492.504	-0.07
492.936	-0.06
493.369	-0.07
493.801	-0.07
494.233	-0.07
494.665	-0.07
495.097	-0.08
495.529	-0.07
495.961	-0.06
496.393	-0.07
496.824	-0.07
497.256	-0.08
497.688	-0.08
498.119	-0.08
498.551	-0.06
498.982	-0.05
499.414	-0.06
499.845	-0.07
500.277	-0.07
500.708	-0.07
501.139	-0.07
501.57	-0.07
502.001	-0.06
502.432	-0.07
502.863	-0.08
503.294	-0.08
503.725	-0.07
504.156	-0.08
504.587	-0.06
505.017	-0.07
505.448	-0.08
505.879	-0.07
506.309	-0.07
506.74	-0.07
507.17	-0.07
507.601	-0.06
508.031	-0.08
508.461	-0.07
508.891	-0.07
509.321	-0.08
509.752	-0.08
510.182	-0.08
510.612	-0.07
511.042	-0.06
511.471	-0.07
511.901	-0.08
512.331	-0.08
512.761	-0.08
513.19	-0.08
513.62	-0.07
514.049	-0.08
514.479	-0.07
514.908	-0.07
515.338	-0.07
515.767	-0.07
516.196	-0.09
516.625	-0.07
517.055	-0.08
517.484	-0.07
517.913	-0.09
518.342	-0.08
518.771	-0.07
519.199	-0.07
519.628	-0.08
520.057	-0.09
520.486	-0.08
520.914	-0.08
521.343	-0.08
521.771	-0.07
522.2	-0.07
522.628	-0.08
523.057	-0.07
523.485	-0.1
523.913	-0.08
524.341	-0.07
524.77	-0.07
525.198	-0.08
525.626	-0.08
526.054	-0.09
526.481	-0.08
526.909	-0.06
527.337	-0.06
527.765	-0.08
528.192	-0.07
528.62	-0.07
529.048	-0.08
529.475	-0.07
529.903	-0.07
530.33	-0.08
530.757	-0.08
531.185	-0.06
531.612	-0.06
532.039	-0.09
532.466	-0.08
532.893	-0.08
533.32	-0.06
533.747	-0.07
534.174	-0.08
534.601	-0.08
535.028	-0.09
535.454	-0.08
535.881	-0.07
536.308	-0.07
536.734	-0.08
537.161	-0.07
537.587	-0.06
538.013	-0.08
538.44	-0.07
538.866	-0.07
539.292	-0.09
539.718	-0.08
540.144	-0.08
540.57	-0.08
540.996	-0.07
541.422	-0.08
541.848	-0.07
542.274	-0.06
542.7	-0.09
543.125	-0.09
543.551	-0.09
543.977	-0.08
544.402	-0.08
544.828	-0.09
545.253	-0.08
545.678	-0.08
546.104	-0.09
546.529	-0.08
546.954	-0.08
547.379	-0.07
547.804	-0.07
548.229	-0.08
548.654	-0.07
549.079	-0.08
549.504	-0.08
549.929	-0.07
550.353	-0.06
550.778	-0.06
551.203	-0.06
551.627	-0.06
552.052	-0.08
552.476	-0.08
552.901	-0.07
553.325	-0.07
553.749	-0.09
554.173	-0.07
554.598	-0.06
555.022	-0.07
555.446	-0.07
555.87	-0.07
556.294	-0.07
556.718	-0.06
557.141	-0.09
557.565	-0.07
557.989	-0.05
558.412	-0.06
558.836	-0.05
559.26	-0.07
559.683	-0.05
560.106	-0.05
560.53	-0.06
560.953	-0.06
561.376	-0.07
561.8	-0.07
562.223	-0.06
562.646	-0.06
563.069	-0.07
563.492	-0.05
563.915	-0.05
564.337	-0.05
564.76	-0.07
565.183	-0.06
565.606	-0.05
566.028	-0.04
566.451	-0.05
566.873	-0.06
567.296	-0.04
567.718	-0.04
568.14	-0.04
568.563	-0.05
568.985	-0.05
569.407	-0.07
569.829	-0.05
570.251	-0.05
570.673	-0.06
571.095	-0.05
571.517	-0.06
571.939	-0.05
572.361	-0.04
572.782	-0.05
573.204	-0.05
573.625	-0.03
574.047	-0.02
574.468	-0.01
574.89	-0.04
575.311	-0.06
575.732	-0.02
576.154	-0.03
576.575	-0.04
576.996	-0.02
577.417	-0.01
577.838	-0.01
578.259	-0.04
578.68	-0.04
579.101	-0.03
579.522	-0.05
579.942	-0.03
580.363	0.02
580.784	0.02
581.204	0.01
581.625	-0.04
582.045	-0
582.465	-0.04
582.886	-0.06
583.306	-0.06
583.726	-0
584.146	0.04
584.566	0.03
584.986	0.02
585.406	0.01
585.826	-0.01
586.246	-0.05
586.666	-0.04
587.086	-0.03
587.505	0.01
587.925	0.03
588.345	0.02
588.764	-0.01
589.184	-0.01
589.603	-0.01
590.022	0.02
590.442	0.01
590.861	0.02
591.28	0
591.699	-0.01
592.118	-0.01
592.537	-0
592.956	0
593.375	-0.03
593.794	-0.02
594.212	-0
594.631	-0.04
595.05	-0.02
595.468	0.03
595.887	0.05
596.305	0.04
596.724	-0.01
597.142	-0.02
597.56	0.01
597.979	0.04
598.397	0.01
598.815	-0.01
599.233	0
599.651	0
600.069	-0.01
600.487	0
600.905	-0.02
601.322	0.02
601.74	0.04
602.158	0.03
602.575	0.07
602.993	0.05
603.41	0.05
603.828	0.05
604.245	0.03
604.663	0.02
605.08	0.01
605.497	-0
605.914	0.04
606.331	0.05
606.748	0.06
607.165	0.01
607.582	0.04
607.999	0.05
608.416	0.06
608.832	0.05
609.249	0.06
609.666	0.07
610.082	0.1
610.499	0.08
610.915	0.08
611.332	0.06
611.748	0.07
612.164	0.06
612.58	0.09
612.997	0.08
613.413	0.07
613.829	0.08
614.245	0.09
614.661	0.07
615.076	0.08
615.492	0.09
615.908	0.1
616.324	0.09
616.739	0.08
617.155	0.12
617.57	0.14
617.986	0.14
618.401	0.12
618.817	0.11
619.232	0.12
619.647	0.12
620.062	0.12
620.477	0.12
620.892	0.15
621.307	0.12
621.722	0.13
622.137	0.13
622.552	0.16
622.967	0.13
623.381	0.14
623.796	0.11
624.211	0.15
624.625	0.17
625.04	0.16
625.454	0.16
625.868	0.17
626.283	0.14
626.697	0.17
627.111	0.18
627.525	0.18
627.939	0.16
628.353	0.16
628.767	0.15
629.181	0.15
629.595	0.17
630.009	0.18
630.422	0.16
630.836	0.15
631.249	0.15
631.663	0.17
632.076	0.18
632.49	0.17
632.903	0.17
633.316	0.17
633.73	0.15
634.143	0.15
634.556	0.16
634.969	0.16
635.382	0.14
635.795	0.14
636.208	0.13
636.621	0.16
637.033	0.14
637.446	0.13
637.859	0.12
638.271	0.12
638.684	0.16
639.096	0.14
639.509	0.14
639.921	0.13
640.333	0.12
640.746	0.11
641.158	0.11
641.57	0.11
641.982	0.09
642.394	0.09
642.806	0.1
643.218	0.09
643.63	0.08
644.041	0.07
644.453	0.08
644.865	0.06
645.276	0.07
645.688	0.06
646.099	0.06
646.511	0.05
646.922	0.04
647.333	0.03
647.745	0.03
648.156	0.03
648.567	0.03
648.978	0.03
649.389	0.02
649.8	0
650.211	-0
650.622	0
651.032	0.02
651.443	0.01
651.854	0.02
652.264	0.02
652.675	-0.02
653.085	-0.01
653.496	-0.02
653.906	-0.02
654.316	-0.02
654.726	-0.02
655.137	-0.04
655.547	-0.03
655.957	-0.02
656.367	-0.04
656.777	-0.06
657.187	-0.18
657.596	-0.14
658.006	-0.1
658.416	0.06
658.826	0.16
659.235	0.01
659.645	-0.06
660.054	-0.06
660.463	-0.06
660.873	-0.07
661.282	-0.05
661.691	-0.07
662.1	-0.06
662.51	-0.09
662.919	-0.08
663.328	-0.08
663.737	-0.09
664.145	-0.08
664.554	-0.09
664.963	-0.11
665.372	-0.09
665.78	-0.09
666.189	-0.11
666.597	-0.09
667.006	-0.1
667.414	-0.1
667.823	-0.09
668.231	-0.1
668.639	-0.09
669.047	-0.11
669.455	-0.11
669.863	-0.1
670.271	-0.09
670.679	-0.11
671.087	-0.12
671.495	-0.11
671.903	-0.11
672.31	-0.11
672.718	-0.1
673.126	-0.12
673.533	-0.12
673.941	-0.11
674.348	-0.09
674.755	-0.1
675.163	-0.1
675.57	-0.1
675.977	-0.13
676.384	-0.1
676.791	-0.12
677.198	-0.12
677.605	-0.11
678.012	-0.13
678.419	-0.12
678.825	-0.1
679.232	-0.13
679.639	-0.11
680.045	-0.13
680.452	-0.1
680.858	-0.12
681.264	-0.12
681.671	-0.12
682.077	-0.11
682.483	-0.11
682.889	-0.12
683.295	-0.13
683.701	-0.13
684.107	-0.11
684.513	-0.1
684.919	-0.11
685.325	-0.14
685.731	-0.13
686.136	-0.14
686.542	-0.12
686.947	-0.13
687.353	-0.13
687.758	-0.11
688.164	-0.1
688.569	-0.11
688.974	-0.12
689.379	-0.12
689.784	-0.12
690.19	-0.11
690.595	-0.12
690.999	-0.12
691.404	-0.14
691.809	-0.13
692.214	-0.12
692.619	-0.13
693.023	-0.14
693.428	-0.12
693.832	-0.11
694.237	-0.1
694.641	-0.12
695.046	-0.12
695.45	-0.13
695.854	-0.12
696.258	-0.13
696.662	-0.14
697.066	-0.12
697.47	-0.13
697.874	-0.12
698.278	-0.12
698.682	-0.15
699.086	-0.15
699.489	-0.11
699.893	-0.08
700.297	-0.1
700.7	-0.12
701.104	-0.11
701.507	-0.11
701.91	-0.12
702.314	-0.13
702.717	-0.12
703.12	-0.14
703.523	-0.13
703.926	-0.13
704.329	-0.14
704.732	-0.13
705.135	-0.12
705.538	-0.1
705.94	-0.11
706.343	-0.13
706.746	-0.12
707.148	-0.1
707.551	-0.12
707.953	-0.13
708.355	-0.15
708.758	-0.15
709.16	-0.11
709.562	-0.1
709.964	-0.11
710.366	-0.12
710.768	-0.11
711.17	-0.12
711.572	-0.11
711.974	-0.14
712.376	-0.15
712.777	-0.12
713.179	-0.12
713.581	-0.11
713.982	-0.14
714.384	-0.14
714.785	-0.12
715.186	-0.13
715.588	-0.12
715.989	-0.12
716.39	-0.13
716.791	-0.13
717.192	-0.12
717.593	-0.12
717.994	-0.11
718.395	-0.13
718.796	-0.13
719.196	-0.12
719.597	-0.13
719.998	-0.12
720.398	-0.12
720.799	-0.11
721.199	-0.12
721.6	-0.12
722	-0.13
722.4	-0.11
722.8	-0.14
723.201	-0.13
723.601	-0.12
724.001	-0.13
724.401	-0.11
724.8	-0.11
725.2	-0.11
725.6	-0.12
726	-0.11
726.399	-0.13
726.799	-0.14
727.199	-0.15
727.598	-0.12
727.997	-0.13
728.397	-0.12
728.796	-0.12
729.195	-0.12
729.594	-0.13
729.994	-0.13
730.393	-0.11
730.792	-0.11
731.19	-0.12
731.589	-0.12
731.988	-0.13
732.387	-0.14
732.786	-0.13
733.184	-0.13
733.583	-0.09
733.981	-0.12
734.38	-0.13
734.778	-0.13
735.176	-0.12
735.575	-0.1
735.973	-0.13
736.371	-0.11
736.769	-0.1
737.167	-0.12
737.565	-0.12
737.963	-0.11
738.361	-0.1
738.759	-0.1
739.156	-0.13
739.554	-0.11
739.951	-0.12
740.349	-0.12
740.746	-0.12
741.144	-0.13
741.541	-0.09
741.938	-0.09
742.336	-0.11
742.733	-0.11
743.13	-0.12
743.527	-0.11
743.924	-0.12
744.321	-0.12
744.718	-0.12
745.115	-0.1
745.511	-0.11
745.908	-0.12
746.305	-0.12
746.701	-0.11
747.098	-0.11
747.494	-0.12
747.89	-0.13
748.287	-0.12
748.683	-0.11
749.079	-0.12
749.475	-0.13
749.871	-0.1
750.267	-0.12
750.663	-0.13
751.059	-0.14
751.455	-0.24
751.851	-0.26
752.246	-0.14
752.642	0
753.038	0.01
753.433	-0.1
753.829	-0.06
754.224	-0.1
754.619	-0.12
755.015	-0.13
755.41	-0.14
755.805	-0.13
756.2	-0.12
756.595	-0.13
756.99	-0.15
757.385	-0.12
757.78	-0.13
758.175	-0.12
758.569	-0.14
758.964	-0.12
759.359	-0.11
759.753	-0.11
760.148	-0.07
760.542	-0.09
760.936	-0.12
761.331	-0.13
761.725	-0.13
762.119	-0.12
762.513	-0.14
762.907	-0.12
763.301	-0.1
763.695	-0.11
764.089	-0.13
764.483	-0.14
764.877	-0.17
765.27	-0.13
765.664	-0.08
766.057	-0.1
766.451	-0.13
766.844	-0.11
767.238	-0.1
767.631	-0.1
768.024	-0.11
768.417	-0.11
768.811	-0.13
769.204	-0.11
769.597	-0.13
769.99	-0.16
770.383	-0.13
770.775	-0.1
771.168	-0.09
771.561	-0.11
771.953	-0.12
772.346	-0.13
772.739	-0.13
773.131	-0.12
773.523	-0.13
773.916	-0.13
774.308	-0.12
774.7	-0.11
775.092	-0.1
775.484	-0.12
775.876	-0.12
776.268	-0.12
776.66	-0.12
777.052	-0.13
777.444	-0.1
777.836	-0.13
778.227	-0.13
778.619	-0.13
779.01	-0.12
779.402	-0.14
779.793	-0.12
780.185	-0.13
780.576	-0.12
780.967	-0.13
